
     Force(N)        Displ(mm)     Strain(%)
             3      0.000000      0.000267 
             3      0.000000      0.000133 
             3      0.000000      0.000267 
             3      0.000000      0.000267 
             3      0.000000      0.000267 
             3      0.000000      0.000267 
             3      0.000000      0.000267 
             3      0.000000      0.000267 
             5      0.000000      0.000267 
             3      0.000000      0.000267 
             3      0.000000      0.000267 
             5      0.000000      0.000267 
             5      0.000000      0.000267 
             5      0.000000      0.000267 
             5      0.000000      0.000267 
             5      0.000000      0.000267 
             5      0.000000      0.000267 
             5      0.000000      0.000267 
             5      0.000000      0.000267 
             5      0.000000      0.000267 
             5      0.000000      0.000267 
             5      0.000000      0.000400 
             5      0.000000     -0.000133 
             5      0.000000      0.000000 
             5      0.000000      0.000000 
          -350      0.000000     -0.000133 
          -100      0.000000      0.000000 
             0      0.000000      0.000000 
             0      0.000000     -0.000133 
             0      0.000000      0.000000 
             0      0.000000      0.000133 
             0      0.000000      0.000133 
             0      0.000000      0.000133 
             0      0.000000      0.000133 
             0      0.000000      0.000133 
             2      0.000000      0.000133 
             0      0.000000      0.000133 
             2      0.000000      0.000267 
             2      0.000000      0.000133 
             2      0.000000      0.000133 
             2      0.000000      0.000267 
             2      0.000000      0.000267 
             2      0.000000      0.000267 
             2      0.000000      0.000267 
             2      0.000000      0.000267 
             0      0.000000      0.000133 
             2      0.000000      0.000133 
             2      0.000000      0.000267 
             2      0.000000      0.000267 
             2      0.000000      0.000267 
            63      0.011000      0.001067 
            97      0.029000      0.001067 
           118      0.047000      0.001200 
           143      0.065000      0.001333 
           168      0.083000      0.001467 
           207      0.100000      0.001600 
           257      0.118000      0.002267 
           322      0.135000      0.003067 
           388      0.152000      0.004000 
           460      0.170000      0.005067 
           545      0.189000      0.006133 
           632      0.206000      0.007333 
           737      0.224000      0.008800 
           850      0.242000      0.010533 
           977      0.259000      0.012400 
          1112      0.276000      0.014533 
          1262      0.293000      0.017067 
          1427      0.312000      0.019867 
          1583      0.329000      0.022533 
          1752      0.347000      0.025467 
          1927      0.365000      0.028533 
          2112      0.383000      0.031733 
          2318      0.401000      0.035067 
          2517      0.418000      0.038533 
          2735      0.436000      0.042267 
          2963      0.454000      0.046267 
          3202      0.471000      0.050400 
          3455      0.489000      0.054933 
          3713      0.507000      0.059333 
          3978      0.525000      0.064000 
          4263      0.543000      0.069200 
          4537      0.561000      0.074000 
          4818      0.578000      0.079067 
          5105      0.596000      0.084267 
          5417      0.615000      0.090000 
          5712      0.632000      0.095333 
          6008      0.650000      0.100800 
          6333      0.668000      0.106800 
          6640      0.686000      0.112533 
          6953      0.704000      0.118533 
          7270      0.721000      0.124400 
          7600      0.740000      0.130800 
          7907      0.757000      0.136667 
          8218      0.774000      0.142533 
          8560      0.792000      0.149333 
          8870      0.809000      0.155333 
          9202      0.827000      0.161867 
          9522      0.844000      0.168133 
          9860      0.863000      0.175067 
         10198      0.881000      0.181867 
         10523      0.898000      0.188400 
         10853      0.916000      0.195067 
         11183      0.933000      0.201867 
         11517      0.951000      0.208933 
         11862      0.969000      0.216400 
         12193      0.986000      0.223467 
         12528      1.004000      0.230667 
         12860      1.022000      0.238133 
         13197      1.040000      0.245733 
         13523      1.058000      0.253600 
         13862      1.076000      0.262000 
         14192      1.094000      0.270533 
         14510      1.112000      0.279200 
         14832      1.129000      0.288133 
         15140      1.147000      0.297200 
         15450      1.165000      0.306800 
         15747      1.182000      0.316533 
         16045      1.200000      0.326933 
         16342      1.218000      0.337733 
         16633      1.236000      0.349200 
         16905      1.253000      0.360400 
         17182      1.271000      0.372400 
         17455      1.289000      0.385333 
         17728      1.307000      0.398933 
         17982      1.325000      0.412400 
         18225      1.343000      0.426267 
         18463      1.360000      0.440400 
         18690      1.377000      0.455200 
         18907      1.395000      0.470133 
         19133      1.413000      0.486533 
         19350      1.431000      0.503333 
         19557      1.449000      0.520933 
         19748      1.466000      0.538000 
         19937      1.484000      0.555867 
         20123      1.502000      0.574533 
         20307      1.520000      0.594400 
         20468      1.538000      0.613733 
         20628      1.556000      0.633467 
         20788      1.575000      0.654533 
         20927      1.592000      0.674800 
         21067      1.609000      0.695200 
         21195      1.626000      0.715867 
         21328      1.645000      0.738533 
         21448      1.663000      0.760267 
         21565      1.681000      0.782667 
         21680      1.699000      0.806933 
         21780      1.716000      0.829600 
         21878      1.734000      0.853600 
         21973      1.752000      0.878667 
         22057      1.769000      0.902667 
         22143      1.787000      0.927600 
         22220      1.805000      0.953333 
         22293      1.823000      0.979333 
         22362      1.841000      1.004933 
         22430      1.860000      1.031733 
         22492      1.878000      1.058800 
         22547      1.895000      1.084667 
         22603      1.912000      1.110400 
         22647      1.930000      1.136933 
         22693      1.948000      1.163867 
         22740      1.967000      1.192133 
         22778      1.984000      1.219333 
         22815      2.001000      1.246800 
         22847      2.018000      1.273867 
         22878      2.037000      1.302533 
         22908      2.054000      1.330800 
         22935      2.072000      1.359600 
         22962      2.090000      1.388533 
         22983      2.107000      1.416933 
         23005      2.125000      1.446000 
         23028      2.143000      1.474533 
         23043      2.161000      1.504133 
         23058      2.178000      1.533333 
         23075      2.196000      1.562400 
         23087      2.214000      1.592800 
         23102      2.231000      1.620533 
         23112      2.248000      1.649733 
         23125      2.266000      1.679600 
         23132      2.285000      1.710800 
         23143      2.302000      1.740267 
         23153      2.320000      1.770533 
         23165      2.338000      1.801067 
         23168      2.356000      1.831600 
         23177      2.374000      1.862133 
         23183      2.391000      1.892400 
         23190      2.409000      1.923067 
         23195      2.427000      1.953467 
         23200      2.445000      1.984533 
         23207      2.464000      2.015600 
         23213      2.481000      2.045600 
         23215      2.499000      2.075867 
         23225      2.517000      2.106800 
         23230      2.536000      2.138533 
         23233      2.553000      2.168133 
         23243      2.570000      2.197867 
         23243      2.588000      2.227867 
         23255      2.605000      2.258000 
         23255      2.623000      2.288000 
         23260      2.640000      2.318400 
         23262      2.657000      2.346800 
         23270      2.675000      2.376667 
         23277      2.693000      2.407067 
         23283      2.711000      2.438667 
         23285      2.728000      2.467733 
         23293      2.746000      2.497733 
         23298      2.763000      2.527867 
         23307      2.781000      2.558533 
         23310      2.799000      2.588400 
         23315      2.816000      2.618133 
         23325      2.834000      2.648667 
         23330      2.852000      2.679200 
         23337      2.870000      2.710400 
         23340      2.888000      2.739867 
         23343      2.905000      2.769600 
         23353      2.923000      2.800267 
         23358      2.941000      2.829467 
         23360      2.958000      2.858800 
         23370      2.976000      2.888533 
         23377      2.995000      2.919600 
         23383      3.012000      2.948933 
         23390      3.030000      2.978400 
         23395      3.048000      3.008400 
         23405      3.065000      3.037733 
         23408      3.083000      3.067600 
         23415      3.100000      3.096400 
         23422      3.118000      3.125867 
         23425      3.135000      3.154933 
         23432      3.153000      3.183733 
         23437      3.170000      3.212400 
         23447      3.187000      3.241333 
         23452      3.205000      3.270533 
         23457      3.223000      3.300133 
         23462      3.240000      3.328533 
         23468      3.258000      3.357867 
         23475      3.275000      3.386667 
         23483      3.293000      3.416267 
         23488      3.310000      3.446000 
         23500      3.329000      3.477067 
         23503      3.348000      3.500000 
         23508      3.365000      3.500000 
         23513      3.383000      3.500000 
         23520      3.401000      3.500000 
         23370      3.408000      3.500000 
         23190      3.407000      3.500000 
         23077      3.407000      3.500000 
         23002      3.407000      3.500000 
         22945      3.407000      3.500000 
         22903      3.407000      3.500000 
         22868      3.407000      3.500000 
         22838      3.407000      3.500000 
         22813      3.407000      3.500000 
         22788      3.407000      3.500000 
         22768      3.407000      3.500000 
         22750      3.407000      3.500000 
         22733      3.407000      3.500000 
         22718      3.407000      3.500000 
         22703      3.407000      3.500000 
         22690      3.407000      3.500000 
         22680      3.407000      3.500000 
         22668      3.407000      3.500000 
         22658      3.407000      3.500000 
         22648      3.407000      3.500000 
         22640      3.407000      3.500000 
         22630      3.407000      3.500000 
         22622      3.407000      3.500000 
         22615      3.407000      3.500000 
         22743      3.416000      3.500000 
         23173      3.434000      3.500000 
         23473      3.452000      3.500000 
         23647      3.470000      3.500000 
         23720      3.488000      3.500000 
         23735      3.505000      3.500000 
         23717      3.524000      3.500000 
         23693      3.541000      3.500000 
         23675      3.559000      3.500000 
         23662      3.576000      3.500000 
         23653      3.594000      3.500000 
         23648      3.612000      3.500000 
         23647      3.629000      3.500000 
         23643      3.647000      3.500000 
         23643      3.665000      3.500000 
         23645      3.683000      3.500000 
         23640      3.700000      3.500000 
         23648      3.719000      3.500000 
         23647      3.736000      3.500000 
         23652      3.755000      3.500000 
         23658      3.771000      3.500000 
         23665      3.790000      3.500000 
         23667      3.807000      3.500000 
         23673      3.825000      3.500000 
         23673      3.843000      3.500000 
         23678      3.861000      3.500000 
         23687      3.878000      3.500000 
         23692      3.896000      3.500000 
         23695      3.914000      3.500000 
         23697      3.932000      3.500000 
         23705      3.949000      3.500000 
         23712      3.967000      3.500000 
         23712      3.985000      3.500000 
         23720      4.003000      3.500000 
         23727      4.021000      3.500000 
         23728      4.039000      3.500000 
         23737      4.056000      3.500000 
         23742      4.074000      3.500000 
         23748      4.092000      3.500000 
         23748      4.109000      3.500000 
         23757      4.127000      3.500000 
         23758      4.144000      3.500000 
         23762      4.161000      3.500000 
         23772      4.180000      3.500000 
         23773      4.198000      3.500000 
         23777      4.216000      3.500000 
         23787      4.234000      3.500000 
         23793      4.252000      3.500000 
         23795      4.269000      3.500000 
         23803      4.287000      3.500000 
         23808      4.306000      3.500000 
         23812      4.323000      3.500000 
         23815      4.341000      3.500000 
         23818      4.359000      3.500000 
         23828      4.376000      3.500000 
         23830      4.394000      3.500000 
         23835      4.412000      3.500000 
         23840      4.431000      3.500000 
         23845      4.448000      3.500000 
         23850      4.466000      3.500000 
         23860      4.484000      3.500000 
         23860      4.501000      3.500000 
         23870      4.519000      3.500000 
         23872      4.537000      3.500000 
         23875      4.555000      3.500000 
         23880      4.572000      3.500000 
         23885      4.590000      3.500000 
         23888      4.608000      3.500000 
         23893      4.626000      3.500000 
         23900      4.644000      3.500000 
         23903      4.662000      3.500000 
         23908      4.681000      3.500000 
         23912      4.697000      3.500000 
         23920      4.715000      3.500000 
         23925      4.734000      3.500000 
         23928      4.752000      3.500000 
         23928      4.769000      3.500000 
         23938      4.787000      3.500000 
         23940      4.804000      3.500000 
         23945      4.822000      3.500000 
         23948      4.840000      3.500000 
         23953      4.858000      3.500000 
         23955      4.876000      3.500000 
         23960      4.894000      3.500000 
         23967      4.912000      3.500000 
         23972      4.929000      3.500000 
         23975      4.946000      3.500000 
         23978      4.964000      3.500000 
         23987      4.982000      3.500000 
         23988      4.999000      3.500000 
         23997      5.017000      3.500000 
         23997      5.035000      3.500000 
         23998      5.051000      3.500000 
         24003      5.069000      3.500000 
         24012      5.087000      3.500000 
         24013      5.104000      3.500000 
         24013      5.122000      3.500000 
         24020      5.141000      3.500000 
         24025      5.159000      3.500000 
         24032      5.176000      3.500000 
         24032      5.193000      3.500000 
         24040      5.211000      3.500000 
         24040      5.229000      3.500000 
         24047      5.246000      3.500000 
         24048      5.264000      3.500000 
         24057      5.281000      3.500000 
         24058      5.299000      3.500000 
         24063      5.316000      3.500000 
         24065      5.334000      3.500000 
         24070      5.351000      3.500000 
         24075      5.369000      3.500000 
         24080      5.386000      3.500000 
         24082      5.404000      3.500000 
         24088      5.423000      3.500000 
         24095      5.440000      3.500000 
         24098      5.458000      3.500000 
         24105      5.476000      3.500000 
         24108      5.493000      3.500000 
         24112      5.511000      3.500000 
         24117      5.529000      3.500000 
         24118      5.547000      3.500000 
         24128      5.564000      3.500000 
         24130      5.583000      3.500000 
         24135      5.601000      3.500000 
         24143      5.619000      3.500000 
         24148      5.637000      3.500000 
         24152      5.654000      3.500000 
         24160      5.672000      3.500000 
         24162      5.689000      3.500000 
         24172      5.708000      3.500000 
         24175      5.725000      3.500000 
         24180      5.743000      3.500000 
         24187      5.761000      3.500000 
         24188      5.779000      3.500000 
         24195      5.796000      3.500000 
         24200      5.814000      3.500000 
         24205      5.831000      3.500000 
         24213      5.850000      3.500000 
         24218      5.867000      3.500000 
         24222      5.884000      3.500000 
         24233      5.902000      3.500000 
         24237      5.920000      3.500000 
         24243      5.937000      3.500000 
         24243      5.955000      3.500000 
         24252      5.973000      3.500000 
         24257      5.991000      3.500000 
         24262      6.008000      3.500000 
         24267      6.026000      3.500000 
         24272      6.044000      3.500000 
         24277      6.062000      3.500000 
         24285      6.079000      3.500000 
         24285      6.097000      3.500000 
         24295      6.115000      3.500000 
         24300      6.133000      3.500000 
         24303      6.150000      3.500000 
         24313      6.168000      3.500000 
         24315      6.186000      3.500000 
         24322      6.203000      3.500000 
         24328      6.222000      3.500000 
         24328      6.239000      3.500000 
         24330      6.257000      3.500000 
         24340      6.275000      3.500000 
         24347      6.294000      3.500000 
         24350      6.311000      3.500000 
         24355      6.328000      3.500000 
         24358      6.346000      3.500000 
         24367      6.364000      3.500000 
         24367      6.381000      3.500000 
         24373      6.399000      3.500000 
         24378      6.415000      3.500000 
         24385      6.433000      3.500000 
         24388      6.451000      3.500000 
         24390      6.469000      3.500000 
         24397      6.487000      3.500000 
         24402      6.504000      3.500000 
         24407      6.522000      3.500000 
         24407      6.540000      3.500000 
         24413      6.557000      3.500000 
         24423      6.575000      3.500000 
         24428      6.593000      3.500000 
         24428      6.610000      3.500000 
         24440      6.629000      3.500000 
         24443      6.646000      3.500000 
         24445      6.664000      3.500000 
         24452      6.682000      3.500000 
         24455      6.700000      3.500000 
         24460      6.717000      3.500000 
